Thermometre :	CX_LS_X121508
Environment :	VA
Date :	02/11/2017
Function :	 logT = Sum ( Ai / logR^i )
Coefficients :	
A0=	217.988307927541740E+0
A1=	-933.026244673473800E+0
A2=	-24.295201315625429E+3
A3=	301.832130652688040E+3
A4=	-1.603057538125527E+6
A5=	4.892067164102522E+6
A6=	-9.194633192597402E+6
A7=	10.565096120862931E+6
A8=	-6.835944813041557E+6
A9=	1.914281008947233E+6
Rmes(Ohm)	Tmes(K)	Tfit(K)	dT(mK)	Courant(A)
6.385207E+1	308.8982	308.9375	-39.3222	1E-4
6.538789E+1	301.0164	300.9943	22.0902	1E-4
6.739156E+1	291.3524	291.3105	41.8636	1E-4
6.985967E+1	280.2986	280.2851	13.4670	1E-4
7.180454E+1	272.2084	272.2048	3.5943	1E-4
7.423172E+1	262.7574	262.7786	-21.1600	1E-4
7.686804E+1	253.2545	253.2745	-19.9549	1E-4
8.017155E+1	242.2874	242.3137	-26.3415	1E-4
8.311089E+1	233.3292	233.3426	-13.3915	1E-4
8.645201E+1	223.9286	223.9302	-1.5841	1E-4
9.019175E+1	214.2734	214.2659	7.4981	1E-4
9.427171E+1	204.6556	204.6371	18.5030	1E-4
9.894476E+1	194.6414	194.6205	20.8781	1E-4
1.037132E+2	185.3737	185.3558	17.9491	1E-4
1.096346E+2	175.0023	174.9919	10.3995	1E-4
1.154217E+2	165.8983	165.8978	0.4657	1E-4
1.234792E+2	154.6430	154.6515	-8.5364	1E-4
1.309031E+2	145.4990	145.5019	-2.9252	1E-4
1.311290E+2	145.2263	145.2395	-13.2029	1E-4
1.395501E+2	136.0439	136.0522	-8.3461	1E-4
1.398217E+2	135.7634	135.7740	-10.6046	1E-4
1.494455E+2	126.5472	126.5550	-7.7658	1E-4
1.498308E+2	126.2016	126.2100	-8.4395	1E-4
1.625206E+2	115.7442	115.7475	-3.2849	1E-4
1.628666E+2	115.4851	115.4847	0.4453	1E-4
1.739065E+2	107.6404	107.6398	0.5617	1E-4
1.742797E+2	107.3906	107.3918	-1.1939	1E-4
1.950088E+2	95.1044	95.0940	10.3712	1E-4
1.956823E+2	94.7488	94.7380	10.8298	1E-4
2.096984E+2	87.8591	87.8475	11.6344	1E-4
2.101188E+2	87.6665	87.6550	11.4711	1E-4
5.089775E+2	32.1136	32.1109	2.6768	1E-4
2.423567E+2	74.9063	74.9017	4.5910	1E-5
2.427699E+2	74.7609	74.7605	0.4226	1E-5
2.591284E+2	69.5333	69.5366	-3.3203	1E-5
2.594432E+2	69.4373	69.4427	-5.3633	1E-5
3.284405E+2	53.2550	53.2748	-19.8103	1E-5
5.408645E+2	29.8878	29.8886	-0.7664	1E-5
5.420044E+2	29.8155	29.8142	1.2897	1E-5
5.445739E+2	29.6479	29.6478	0.0951	1E-5
5.550108E+2	28.9897	28.9886	1.1002	1E-5
5.716196E+2	27.9938	27.9920	1.8179	1E-5
5.893601E+2	26.9952	26.9931	2.0671	1E-5
6.083519E+2	25.9945	25.9924	2.1008	1E-5
6.286523E+2	24.9961	24.9940	2.1325	1E-5
6.504591E+2	23.9969	23.9957	1.1712	1E-5
6.739635E+2	22.9988	22.9975	1.3020	1E-5
6.993819E+2	21.9996	21.9995	0.1201	1E-5
7.269790E+2	21.0017	21.0016	0.0772	1E-5
7.571204E+2	20.0010	20.0024	-1.3939	1E-5
7.901026E+2	19.0025	19.0048	-2.2896	1E-5
8.264472E+2	18.0050	18.0072	-2.2456	1E-5
8.668205E+2	17.0057	17.0081	-2.3813	1E-5
9.119572E+2	16.0063	16.0082	-1.9376	1E-5
9.678488E+2	14.9143	14.9159	-1.5847	1E-5
1.026059E+3	13.9222	13.9222	0.0442	1E-5
1.093170E+3	12.9288	12.9274	1.4330	1E-5
1.171469E+3	11.9365	11.9339	2.5955	1E-5
1.264480E+3	10.9439	10.9413	2.5639	1E-5
1.378495E+3	9.9391	9.9416	-2.4907	1E-5
